Sample Name, Sample-2
Time, April 01 12:01:44 2022
Operator, Kolloid
Lamp, 0
Slit,0.0
Scan From, 1100.0nm
Scan To, 200.0nm
Scan Step, 1.0nm
Sample Filter, 10
memo, 
WL(nm), Abs, T%
200.0, 3.4844, 0.03
201.0, 3.5271, 0.03
202.0, 3.5877, 0.03
203.0, 3.6224, 0.02
204.0, 3.6670, 0.02
205.0, 3.7093, 0.02
206.0, 3.4574, 0.03
207.0, 3.5108, 0.03
208.0, 3.5638, 0.03
209.0, 3.6221, 0.02
210.0, 3.6807, 0.02
211.0, 3.7359, 0.02
212.0, 3.7951, 0.02
213.0, 3.8560, 0.01
214.0, 3.9151, 0.01
215.0, 3.9761, 0.01
216.0, 4.0325, 0.01
217.0, 4.0897, 0.01
218.0, 4.1479, 0.01
219.0, 4.1993, 0.01
220.0, 4.2422, 0.01
221.0, 3.9712, 0.01
222.0, 4.0165, 0.01
223.0, 4.0574, 0.01
224.0, 4.0976, 0.01
225.0, 4.1339, 0.01
226.0, 4.1687, 0.01
227.0, 4.2000, 0.01
228.0, 4.2298, 0.01
229.0, 4.2567, 0.01
230.0, 4.2822, 0.01
231.0, 4.3053, 0.00
232.0, 4.3258, 0.00
233.0, 4.3455, 0.00
234.0, 4.3629, 0.00
235.0, 4.3760, 0.00
236.0, 4.3878, 0.00
237.0, 4.3975, 0.00
238.0, 4.4046, 0.00
239.0, 4.4105, 0.00
240.0, 4.4144, 0.00
241.0, 4.4172, 0.00
242.0, 4.4191, 0.00
243.0, 4.4198, 0.00
244.0, 3.5305, 0.03
245.0, 4.4186, 0.00
246.0, 4.4171, 0.00
247.0, 4.4149, 0.00
248.0, 4.4122, 0.00
249.0, 4.4094, 0.00
250.0, 4.4058, 0.00
251.0, 4.4023, 0.00
252.0, 4.3977, 0.00
253.0, 4.3921, 0.00
254.0, 4.3874, 0.00
255.0, 4.3819, 0.00
256.0, 4.3760, 0.00
257.0, 4.3703, 0.00
258.0, 4.3649, 0.00
259.0, 4.3580, 0.00
260.0, 4.3513, 0.00
261.0, 4.1002, 0.01
262.0, 4.3358, 0.00
263.0, 4.3286, 0.00
264.0, 4.3218, 0.00
265.0, 4.6406, 0.00
266.0, 4.6318, 0.00
267.0, 4.6235, 0.00
268.0, 4.6154, 0.00
269.0, 4.6080, 0.00
270.0, 4.6008, 0.00
271.0, 4.5946, 0.00
272.0, 4.5884, 0.00
273.0, 4.5828, 0.00
274.0, 4.5786, 0.00
275.0, 4.5757, 0.00
276.0, 4.5729, 0.00
277.0, 4.5708, 0.00
278.0, 4.5685, 0.00
279.0, 4.5676, 0.00
280.0, 4.5663, 0.00
281.0, 4.5651, 0.00
282.0, 4.5642, 0.00
283.0, 4.5635, 0.00
284.0, 4.5630, 0.00
285.0, 4.5627, 0.00
286.0, 4.5627, 0.00
287.0, 4.5630, 0.00
288.0, 4.5634, 0.00
289.0, 4.5641, 0.00
290.0, 4.5657, 0.00
291.0, 4.5677, 0.00
292.0, 3.7643, 0.02
293.0, 3.5392, 0.03
294.0, 3.5212, 0.03
295.0, 3.2837, 0.05
296.0, 2.9462, 0.11
297.0, 2.9123, 0.12
298.0, 2.8113, 0.15
299.0, 2.7352, 0.18
300.0, 2.6493, 0.22
301.0, 2.6072, 0.25
302.0, 2.5515, 0.28
303.0, 2.4727, 0.34
304.0, 2.4262, 0.37
305.0, 2.3901, 0.41
306.0, 2.3729, 0.42
307.0, 2.3496, 0.45
308.0, 2.3238, 0.47
309.0, 2.2844, 0.52
310.0, 2.2744, 0.53
311.0, 2.2166, 0.61
312.0, 2.1659, 0.68
313.0, 2.1502, 0.71
314.0, 2.1389, 0.73
315.0, 2.1091, 0.78
316.0, 2.0969, 0.80
317.0, 2.0624, 0.87
318.0, 2.0155, 0.96
319.0, 1.9911, 1.02
320.0, 1.9732, 1.06
321.0, 1.9455, 1.13
322.0, 1.9214, 1.20
323.0, 1.9019, 1.25
324.0, 1.8657, 1.36
325.0, 1.8431, 1.44
326.0, 1.8224, 1.51
327.0, 1.8047, 1.57
328.0, 1.7823, 1.65
329.0, 1.7560, 1.75
330.0, 1.7349, 1.84
331.0, 1.7091, 1.95
332.0, 1.6903, 2.04
333.0, 1.6704, 2.14
334.0, 1.6513, 2.23
335.0, 1.6465, 2.26
336.0, 1.6371, 2.31
337.0, 1.6273, 2.36
338.0, 1.6029, 2.50
339.0, 1.5939, 2.55
340.0, 1.5603, 2.75
341.0, 1.5403, 2.88
342.0, 1.5346, 2.92
343.0, 1.4925, 3.22
344.0, 1.4950, 3.20
345.0, 1.4766, 3.34
346.0, 1.4777, 3.33
347.0, 1.4700, 3.39
348.0, 1.4686, 3.40
349.0, 1.4529, 3.52
350.0, 1.4419, 3.61
351.0, 1.4293, 3.72
352.0, 1.4205, 3.80
353.0, 1.4077, 3.91
354.0, 1.4042, 3.94
355.0, 1.3942, 4.03
356.0, 1.3889, 4.08
357.0, 1.3787, 4.18
358.0, 1.3771, 4.20
359.0, 1.3708, 4.26
360.0, 1.3627, 4.34
361.0, 1.3604, 4.36
362.0, 1.3478, 4.49
363.0, 1.3403, 4.57
364.0, 1.3367, 4.61
365.0, 1.3329, 4.65
366.0, 1.3297, 4.68
367.0, 1.3263, 4.72
368.0, 1.3268, 4.71
369.0, 1.3299, 4.68
370.0, 1.3290, 4.69
371.0, 1.2965, 5.05
372.0, 1.3001, 5.01
373.0, 1.3012, 5.00
374.0, 1.2998, 5.01
375.0, 1.2941, 5.08
376.0, 1.2922, 5.10
377.0, 1.2827, 5.22
378.0, 1.2812, 5.23
379.0, 1.2835, 5.21
380.0, 1.2797, 5.25
381.0, 1.2778, 5.27
382.0, 1.2739, 5.32
383.0, 1.2745, 5.32
384.0, 1.2719, 5.35
385.0, 1.2660, 5.42
386.0, 1.2707, 5.36
387.0, 1.2652, 5.43
388.0, 1.2669, 5.41
389.0, 1.2624, 5.47
390.0, 1.2628, 5.46
391.0, 1.2591, 5.51
392.0, 1.2617, 5.47
393.0, 1.2571, 5.53
394.0, 1.2607, 5.49
395.0, 1.2543, 5.57
396.0, 1.2570, 5.53
397.0, 1.2600, 5.50
398.0, 1.2564, 5.54
399.0, 1.2546, 5.56
400.0, 1.2540, 5.57
401.0, 1.2571, 5.53
402.0, 1.2552, 5.56
403.0, 1.2533, 5.58
404.0, 1.2550, 5.56
405.0, 1.2576, 5.53
406.0, 1.2598, 5.50
407.0, 1.2592, 5.51
408.0, 1.2623, 5.47
409.0, 1.2596, 5.50
410.0, 1.2607, 5.49
411.0, 1.2616, 5.47
412.0, 1.2592, 5.51
413.0, 1.2592, 5.51
414.0, 1.2612, 5.48
415.0, 1.2608, 5.49
416.0, 1.2610, 5.48
417.0, 1.2614, 5.48
418.0, 1.2628, 5.46
419.0, 1.2616, 5.48
420.0, 1.2622, 5.47
421.0, 1.2605, 5.49
422.0, 1.2616, 5.48
423.0, 1.2618, 5.47
424.0, 1.2629, 5.46
425.0, 1.2633, 5.45
426.0, 1.2635, 5.45
427.0, 1.2651, 5.43
428.0, 1.2642, 5.44
429.0, 1.2668, 5.41
430.0, 1.2673, 5.40
431.0, 1.2677, 5.40
432.0, 1.2699, 5.37
433.0, 1.2708, 5.36
434.0, 1.2710, 5.36
435.0, 1.2719, 5.35
436.0, 1.2725, 5.34
437.0, 1.2764, 5.29
438.0, 1.2749, 5.31
439.0, 1.2758, 5.30
440.0, 1.2772, 5.28
441.0, 1.2788, 5.26
442.0, 1.2761, 5.30
443.0, 1.2752, 5.31
444.0, 1.2770, 5.28
445.0, 1.2786, 5.26
446.0, 1.2772, 5.28
447.0, 1.2811, 5.23
448.0, 1.2815, 5.23
449.0, 1.2836, 5.20
450.0, 1.2830, 5.21
451.0, 1.2927, 5.10
452.0, 1.2894, 5.14
453.0, 1.2936, 5.09
454.0, 1.2942, 5.08
455.0, 1.2964, 5.05
456.0, 1.2970, 5.05
457.0, 1.2966, 5.05
458.0, 1.2975, 5.04
459.0, 1.3005, 5.01
460.0, 1.3088, 4.91
461.0, 1.3052, 4.95
462.0, 1.3092, 4.91
463.0, 1.3117, 4.88
464.0, 1.3090, 4.91
465.0, 1.3128, 4.87
466.0, 1.3155, 4.84
467.0, 1.3158, 4.83
468.0, 1.3131, 4.86
469.0, 1.3154, 4.84
470.0, 1.3201, 4.79
471.0, 1.3161, 4.83
472.0, 1.3198, 4.79
473.0, 1.3202, 4.78
474.0, 1.3203, 4.78
475.0, 1.3260, 4.72
476.0, 1.3187, 4.80
477.0, 1.3274, 4.71
478.0, 1.3231, 4.75
479.0, 1.3287, 4.69
480.0, 1.3262, 4.72
481.0, 1.3299, 4.68
482.0, 1.3319, 4.66
483.0, 1.3332, 4.64
484.0, 1.3367, 4.61
485.0, 1.3371, 4.60
486.0, 1.3353, 4.62
487.0, 1.3385, 4.59
488.0, 1.3424, 4.55
489.0, 1.3396, 4.58
490.0, 1.3458, 4.51
491.0, 1.3440, 4.53
492.0, 1.3489, 4.48
493.0, 1.3484, 4.48
494.0, 1.3482, 4.49
495.0, 1.3538, 4.43
496.0, 1.3536, 4.43
497.0, 1.3542, 4.42
498.0, 1.3550, 4.42
499.0, 1.3570, 4.40
500.0, 1.3606, 4.36
501.0, 1.3576, 4.39
502.0, 1.3632, 4.33
503.0, 1.3605, 4.36
504.0, 1.3635, 4.33
505.0, 1.3692, 4.27
506.0, 1.3666, 4.30
507.0, 1.3696, 4.27
508.0, 1.3744, 4.22
509.0, 1.3741, 4.23
510.0, 1.3767, 4.20
511.0, 1.3782, 4.19
512.0, 1.3807, 4.16
513.0, 1.3831, 4.14
514.0, 1.3846, 4.13
515.0, 1.3850, 4.12
516.0, 1.3863, 4.11
517.0, 1.3889, 4.08
518.0, 1.3922, 4.05
519.0, 1.3918, 4.06
520.0, 1.3949, 4.03
521.0, 1.3977, 4.00
522.0, 1.3988, 3.99
523.0, 1.3994, 3.99
524.0, 1.4048, 3.94
525.0, 1.4054, 3.93
526.0, 1.4076, 3.91
527.0, 1.4064, 3.92
528.0, 1.4098, 3.89
529.0, 1.4117, 3.88
530.0, 1.4150, 3.85
531.0, 1.4162, 3.84
532.0, 1.4188, 3.81
533.0, 1.4205, 3.80
534.0, 1.4228, 3.78
535.0, 1.4253, 3.76
536.0, 1.4285, 3.73
537.0, 1.4289, 3.72
538.0, 1.4307, 3.71
539.0, 1.4303, 3.71
540.0, 1.4352, 3.67
541.0, 1.4378, 3.65
542.0, 1.4402, 3.63
543.0, 1.4424, 3.61
544.0, 1.4455, 3.59
545.0, 1.4458, 3.58
546.0, 1.4467, 3.58
547.0, 1.4493, 3.55
548.0, 1.4525, 3.53
549.0, 1.4544, 3.51
550.0, 1.4570, 3.49
551.0, 1.4572, 3.49
552.0, 1.4607, 3.46
553.0, 1.4644, 3.43
554.0, 1.4656, 3.42
555.0, 1.4678, 3.41
556.0, 1.4696, 3.39
557.0, 1.4744, 3.35
558.0, 1.4762, 3.34
559.0, 1.4784, 3.32
560.0, 1.4819, 3.30
561.0, 1.4851, 3.27
562.0, 1.4865, 3.26
563.0, 1.4877, 3.25
564.0, 1.4921, 3.22
565.0, 1.4961, 3.19
566.0, 1.4975, 3.18
567.0, 1.4977, 3.18
568.0, 1.4998, 3.16
569.0, 1.5031, 3.14
570.0, 1.5064, 3.12
571.0, 1.5111, 3.08
572.0, 1.5169, 3.04
573.0, 1.5167, 3.04
574.0, 1.5142, 3.06
575.0, 1.5189, 3.03
576.0, 1.5250, 2.99
577.0, 1.5273, 2.97
578.0, 1.5307, 2.95
579.0, 1.5305, 2.95
580.0, 1.5367, 2.91
581.0, 1.5393, 2.89
582.0, 1.5434, 2.86
583.0, 1.5462, 2.84
584.0, 1.5477, 2.83
585.0, 1.5546, 2.79
586.0, 1.5369, 2.90
587.0, 1.5399, 2.88
588.0, 1.5440, 2.86
589.0, 1.5485, 2.83
590.0, 1.5552, 2.78
591.0, 1.5489, 2.83
592.0, 1.5563, 2.78
593.0, 1.5637, 2.73
594.0, 1.5622, 2.74
595.0, 1.5696, 2.69
596.0, 1.5712, 2.68
597.0, 1.5745, 2.66
598.0, 1.5697, 2.69
599.0, 1.5791, 2.64
600.0, 1.5838, 2.61
601.0, 1.5819, 2.62
602.0, 1.5922, 2.56
603.0, 1.5897, 2.57
604.0, 1.5851, 2.60
605.0, 1.5974, 2.53
606.0, 1.5999, 2.51
607.0, 1.6037, 2.49
608.0, 1.6062, 2.48
609.0, 1.6073, 2.47
610.0, 1.6112, 2.45
611.0, 1.6082, 2.47
612.0, 1.6217, 2.39
613.0, 1.6188, 2.41
614.0, 1.6215, 2.39
615.0, 1.6237, 2.38
616.0, 1.6334, 2.33
617.0, 1.6289, 2.35
618.0, 1.6331, 2.33
619.0, 1.6413, 2.28
620.0, 1.6379, 2.30
621.0, 1.6399, 2.29
622.0, 1.6445, 2.27
623.0, 1.6462, 2.26
624.0, 1.6468, 2.26
625.0, 1.6454, 2.26
626.0, 1.6567, 2.20
627.0, 1.6566, 2.21
628.0, 1.6677, 2.15
629.0, 1.6554, 2.21
630.0, 1.6611, 2.18
631.0, 1.6736, 2.12
632.0, 1.6697, 2.14
633.0, 1.6790, 2.09
634.0, 1.6732, 2.12
635.0, 1.6766, 2.11
636.0, 1.6722, 2.13
637.0, 1.6846, 2.07
638.0, 1.6870, 2.06
639.0, 1.6823, 2.08
640.0, 1.6968, 2.01
641.0, 1.6952, 2.02
642.0, 1.6973, 2.01
643.0, 1.7029, 1.98
644.0, 1.7025, 1.98
645.0, 1.6992, 2.00
646.0, 1.6998, 2.00
647.0, 1.7130, 1.94
648.0, 1.7145, 1.93
649.0, 1.7105, 1.95
650.0, 1.7056, 1.97
651.0, 1.7205, 1.90
652.0, 1.7195, 1.91
653.0, 1.7181, 1.91
654.0, 1.7316, 1.86
655.0, 1.7187, 1.91
656.0, 1.7239, 1.89
657.0, 1.7296, 1.86
658.0, 1.7336, 1.85
659.0, 1.7352, 1.84
660.0, 1.7399, 1.82
661.0, 1.7332, 1.85
662.0, 1.7377, 1.83
663.0, 1.7361, 1.84
664.0, 1.7362, 1.84
665.0, 1.7376, 1.83
666.0, 1.7425, 1.81
667.0, 1.7504, 1.78
668.0, 1.7475, 1.79
669.0, 1.7529, 1.77
670.0, 1.7458, 1.80
671.0, 1.7580, 1.75
672.0, 1.7564, 1.75
673.0, 1.7575, 1.75
674.0, 1.7607, 1.74
675.0, 1.7556, 1.76
676.0, 1.7543, 1.76
677.0, 1.7537, 1.76
678.0, 1.7721, 1.69
679.0, 1.7596, 1.74
680.0, 1.7735, 1.68
681.0, 1.7754, 1.68
682.0, 1.7693, 1.70
683.0, 1.7594, 1.74
684.0, 1.7801, 1.66
685.0, 1.7762, 1.67
686.0, 1.7724, 1.69
687.0, 1.7738, 1.68
688.0, 1.7714, 1.69
689.0, 1.7788, 1.66
690.0, 1.7726, 1.69
691.0, 1.7817, 1.65
692.0, 1.7881, 1.63
693.0, 1.7839, 1.64
694.0, 1.7795, 1.66
695.0, 1.7778, 1.67
696.0, 1.7875, 1.63
697.0, 1.7832, 1.65
698.0, 1.7801, 1.66
699.0, 1.7917, 1.62
700.0, 1.7817, 1.65
701.0, 1.7868, 1.63
702.0, 1.7908, 1.62
703.0, 1.7915, 1.62
704.0, 1.7900, 1.62
705.0, 1.7894, 1.62
706.0, 1.7911, 1.62
707.0, 1.7907, 1.62
708.0, 1.7951, 1.60
709.0, 1.7936, 1.61
710.0, 1.7943, 1.61
711.0, 1.7875, 1.63
712.0, 1.8026, 1.58
713.0, 1.7905, 1.62
714.0, 1.8188, 1.52
715.0, 1.7962, 1.60
716.0, 1.7906, 1.62
717.0, 1.7957, 1.60
718.0, 1.8012, 1.58
719.0, 1.8012, 1.58
720.0, 1.7990, 1.59
721.0, 1.7984, 1.59
722.0, 1.8012, 1.58
723.0, 1.7999, 1.59
724.0, 1.8013, 1.58
725.0, 1.8031, 1.57
726.0, 1.8013, 1.58
727.0, 1.8047, 1.57
728.0, 1.7998, 1.59
729.0, 1.8027, 1.57
730.0, 1.8024, 1.58
731.0, 1.8013, 1.58
732.0, 1.7984, 1.59
733.0, 1.7975, 1.59
734.0, 1.8041, 1.57
735.0, 1.8004, 1.58
736.0, 1.7982, 1.59
737.0, 1.8054, 1.57
738.0, 1.8032, 1.57
739.0, 1.8034, 1.57
740.0, 1.8001, 1.58
741.0, 1.8048, 1.57
742.0, 1.8051, 1.57
743.0, 1.8052, 1.57
744.0, 1.8036, 1.57
745.0, 1.8059, 1.56
746.0, 1.8010, 1.58
747.0, 1.8041, 1.57
748.0, 1.8040, 1.57
749.0, 1.8006, 1.58
750.0, 1.8056, 1.56
751.0, 1.7996, 1.59
752.0, 1.7972, 1.60
753.0, 1.8011, 1.58
754.0, 1.7981, 1.59
755.0, 1.7974, 1.59
756.0, 1.7950, 1.60
757.0, 1.7908, 1.62
758.0, 1.8013, 1.58
759.0, 1.7914, 1.62
760.0, 1.7990, 1.59
761.0, 1.7859, 1.64
762.0, 1.7986, 1.59
763.0, 1.7885, 1.63
764.0, 1.7952, 1.60
765.0, 1.7911, 1.62
766.0, 1.7793, 1.66
767.0, 1.7947, 1.60
768.0, 1.7804, 1.66
769.0, 1.7872, 1.63
770.0, 1.7793, 1.66
771.0, 1.7895, 1.62
772.0, 1.7808, 1.66
773.0, 1.7845, 1.64
774.0, 1.7796, 1.66
775.0, 1.7769, 1.67
776.0, 1.7796, 1.66
777.0, 1.7668, 1.71
778.0, 1.7806, 1.66
779.0, 1.7721, 1.69
780.0, 1.7758, 1.68
781.0, 1.7692, 1.70
782.0, 1.7711, 1.69
783.0, 1.7648, 1.72
784.0, 1.7668, 1.71
785.0, 1.7638, 1.72
786.0, 1.7604, 1.74
787.0, 1.7563, 1.75
788.0, 1.7540, 1.76
789.0, 1.7583, 1.74
790.0, 1.7484, 1.78
791.0, 1.7494, 1.78
792.0, 1.7463, 1.79
793.0, 1.7407, 1.82
794.0, 1.7467, 1.79
795.0, 1.7348, 1.84
796.0, 1.7370, 1.83
797.0, 1.7415, 1.81
798.0, 1.7329, 1.85
799.0, 1.7367, 1.83
800.0, 1.7254, 1.88
801.0, 1.7316, 1.86
802.0, 1.7255, 1.88
803.0, 1.7240, 1.89
804.0, 1.7141, 1.93
805.0, 1.7166, 1.92
806.0, 1.7063, 1.97
807.0, 1.7061, 1.97
808.0, 1.7056, 1.97
809.0, 1.7009, 1.99
810.0, 1.7099, 1.95
811.0, 1.7008, 1.99
812.0, 1.6933, 2.03
813.0, 1.7015, 1.99
814.0, 1.6932, 2.03
815.0, 1.6960, 2.01
816.0, 1.6858, 2.06
817.0, 1.6885, 2.05
818.0, 1.6832, 2.07
819.0, 1.6759, 2.11
820.0, 1.6780, 2.10
821.0, 1.6673, 2.15
822.0, 1.6692, 2.14
823.0, 1.6625, 2.18
824.0, 1.6617, 2.18
825.0, 1.6629, 2.17
826.0, 1.6663, 2.16
827.0, 1.6548, 2.21
828.0, 1.6643, 2.17
829.0, 1.6469, 2.25
830.0, 1.6459, 2.26
831.0, 1.6469, 2.26
832.0, 1.6400, 2.29
833.0, 1.6445, 2.27
834.0, 1.6295, 2.35
835.0, 1.6369, 2.31
836.0, 1.6396, 2.29
837.0, 1.6303, 2.34
838.0, 1.6302, 2.34
839.0, 1.6252, 2.37
840.0, 1.6253, 2.37
841.0, 1.6170, 2.42
842.0, 1.6155, 2.42
843.0, 1.6187, 2.41
844.0, 1.6081, 2.47
845.0, 1.6137, 2.43
846.0, 1.5989, 2.52
847.0, 1.5960, 2.54
848.0, 1.5998, 2.51
849.0, 1.5914, 2.56
850.0, 1.5946, 2.54
851.0, 1.5963, 2.53
852.0, 1.5958, 2.54
853.0, 1.6005, 2.51
854.0, 1.5934, 2.55
855.0, 1.5936, 2.55
856.0, 1.5872, 2.59
857.0, 1.5844, 2.60
858.0, 1.5804, 2.63
859.0, 1.5716, 2.68
860.0, 1.5804, 2.63
861.0, 1.5763, 2.65
862.0, 1.5687, 2.70
863.0, 1.5747, 2.66
864.0, 1.5742, 2.67
865.0, 1.5666, 2.71
866.0, 1.5633, 2.73
867.0, 1.5603, 2.75
868.0, 1.5624, 2.74
869.0, 1.5531, 2.80
870.0, 1.5577, 2.77
871.0, 1.5486, 2.83
872.0, 1.5503, 2.82
873.0, 1.5454, 2.85
874.0, 1.5451, 2.85
875.0, 1.5398, 2.89
876.0, 1.5368, 2.91
877.0, 1.5362, 2.91
878.0, 1.5364, 2.91
879.0, 1.5359, 2.91
880.0, 1.5337, 2.93
881.0, 1.5301, 2.95
882.0, 1.5254, 2.98
883.0, 1.5240, 2.99
884.0, 1.5210, 3.01
885.0, 1.5214, 3.01
886.0, 1.5152, 3.05
887.0, 1.5187, 3.03
888.0, 1.5102, 3.09
889.0, 1.5132, 3.07
890.0, 1.5070, 3.11
891.0, 1.5043, 3.13
892.0, 1.5064, 3.12
893.0, 1.4977, 3.18
894.0, 1.5017, 3.15
895.0, 1.4998, 3.16
896.0, 1.4955, 3.20
897.0, 1.4914, 3.23
898.0, 1.4938, 3.21
899.0, 1.4911, 3.23
900.0, 1.4882, 3.25
901.0, 1.4914, 3.23
902.0, 1.4824, 3.29
903.0, 1.4875, 3.25
904.0, 1.4829, 3.29
905.0, 1.4807, 3.31
906.0, 1.4737, 3.36
907.0, 1.4784, 3.32
908.0, 1.4761, 3.34
909.0, 1.4731, 3.36
910.0, 1.4743, 3.36
911.0, 1.4694, 3.39
912.0, 1.4694, 3.39
913.0, 1.4671, 3.41
914.0, 1.4635, 3.44
915.0, 1.4646, 3.43
916.0, 1.4628, 3.44
917.0, 1.4644, 3.43
918.0, 1.4618, 3.45
919.0, 1.4592, 3.47
920.0, 1.4608, 3.46
921.0, 1.4528, 3.53
922.0, 1.4565, 3.50
923.0, 1.4507, 3.54
924.0, 1.4528, 3.52
925.0, 1.4497, 3.55
926.0, 1.4519, 3.53
927.0, 1.4424, 3.61
928.0, 1.4468, 3.57
929.0, 1.4388, 3.64
930.0, 1.4463, 3.58
931.0, 1.4401, 3.63
932.0, 1.4354, 3.67
933.0, 1.4388, 3.64
934.0, 1.4360, 3.66
935.0, 1.4324, 3.69
936.0, 1.4327, 3.69
937.0, 1.4339, 3.68
938.0, 1.4309, 3.71
939.0, 1.4310, 3.71
940.0, 1.4318, 3.70
941.0, 1.4279, 3.73
942.0, 1.4284, 3.73
943.0, 1.4262, 3.75
944.0, 1.4266, 3.74
945.0, 1.4261, 3.75
946.0, 1.4200, 3.80
947.0, 1.4206, 3.80
948.0, 1.4207, 3.80
949.0, 1.4176, 3.82
950.0, 1.4181, 3.82
951.0, 1.4068, 3.92
952.0, 1.4081, 3.91
953.0, 1.4056, 3.93
954.0, 1.4047, 3.94
955.0, 1.4040, 3.94
956.0, 1.4051, 3.93
957.0, 1.4001, 3.98
958.0, 1.4015, 3.97
959.0, 1.3967, 4.01
960.0, 1.3995, 3.99
961.0, 1.3961, 4.02
962.0, 1.3964, 4.01
963.0, 1.3948, 4.03
964.0, 1.3947, 4.03
965.0, 1.3918, 4.06
966.0, 1.3921, 4.05
967.0, 1.3914, 4.06
968.0, 1.3909, 4.07
969.0, 1.3945, 4.03
970.0, 1.3874, 4.10
971.0, 1.3895, 4.08
972.0, 1.3833, 4.14
973.0, 1.3868, 4.10
974.0, 1.3825, 4.15
975.0, 1.3885, 4.09
976.0, 1.3827, 4.14
977.0, 1.3829, 4.14
978.0, 1.3833, 4.14
979.0, 1.3820, 4.15
980.0, 1.3827, 4.14
981.0, 1.3810, 4.16
982.0, 1.3743, 4.22
983.0, 1.3784, 4.18
984.0, 1.3777, 4.19
985.0, 1.3745, 4.22
986.0, 1.3746, 4.22
987.0, 1.3742, 4.22
988.0, 1.3747, 4.22
989.0, 1.3701, 4.26
990.0, 1.3702, 4.26
991.0, 1.3700, 4.27
992.0, 1.3693, 4.27
993.0, 1.3726, 4.24
994.0, 1.3687, 4.28
995.0, 1.3649, 4.32
996.0, 1.3643, 4.32
997.0, 1.3544, 4.42
998.0, 1.3538, 4.43
999.0, 1.3513, 4.45
1000.0, 1.3519, 4.45
1001.0, 1.3508, 4.46
1002.0, 1.3454, 4.51
1003.0, 1.3454, 4.51
1004.0, 1.3462, 4.51
1005.0, 1.3462, 4.51
1006.0, 1.3449, 4.52
1007.0, 1.3428, 4.54
1008.0, 1.3447, 4.52
1009.0, 1.3384, 4.59
1010.0, 1.3405, 4.57
1011.0, 1.3397, 4.57
1012.0, 1.3374, 4.60
1013.0, 1.3410, 4.56
1014.0, 1.3383, 4.59
1015.0, 1.3346, 4.63
1016.0, 1.3334, 4.64
1017.0, 1.3332, 4.64
1018.0, 1.3335, 4.64
1019.0, 1.3338, 4.64
1020.0, 1.3312, 4.66
1021.0, 1.3295, 4.68
1022.0, 1.3266, 4.71
1023.0, 1.3284, 4.69
1024.0, 1.3276, 4.70
1025.0, 1.3271, 4.71
1026.0, 1.3259, 4.72
1027.0, 1.3245, 4.74
1028.0, 1.3202, 4.78
1029.0, 1.3172, 4.82
1030.0, 1.3162, 4.83
1031.0, 1.3086, 4.91
1032.0, 1.3108, 4.89
1033.0, 1.3075, 4.93
1034.0, 1.3065, 4.94
1035.0, 1.3156, 4.83
1036.0, 1.3161, 4.83
1037.0, 1.3165, 4.82
1038.0, 1.3126, 4.87
1039.0, 1.3125, 4.87
1040.0, 1.3089, 4.91
1041.0, 1.3026, 4.98
1042.0, 1.2971, 5.05
1043.0, 1.2961, 5.06
1044.0, 1.2990, 5.02
1045.0, 1.2954, 5.07
1046.0, 1.2947, 5.07
1047.0, 1.2952, 5.07
1048.0, 1.2924, 5.10
1049.0, 1.2918, 5.11
1050.0, 1.2923, 5.10
1051.0, 1.2932, 5.09
1052.0, 1.2882, 5.15
1053.0, 1.2874, 5.16
1054.0, 1.2889, 5.14
1055.0, 1.2884, 5.15
1056.0, 1.2865, 5.17
1057.0, 1.2887, 5.14
1058.0, 1.2868, 5.17
1059.0, 1.2878, 5.15
1060.0, 1.2837, 5.20
1061.0, 1.2810, 5.24
1062.0, 1.2880, 5.15
1063.0, 1.2885, 5.15
1064.0, 1.2870, 5.16
1065.0, 1.2794, 5.26
1066.0, 1.2784, 5.27
1067.0, 1.2804, 5.24
1068.0, 1.2790, 5.26
1069.0, 1.2820, 5.22
1070.0, 1.2775, 5.28
1071.0, 1.2763, 5.29
1072.0, 1.2764, 5.29
1073.0, 1.2747, 5.31
1074.0, 1.2782, 5.27
1075.0, 1.2804, 5.24
1076.0, 1.2765, 5.29
1077.0, 1.2780, 5.27
1078.0, 1.2808, 5.24
1079.0, 1.2782, 5.27
1080.0, 1.2794, 5.26
1081.0, 1.2851, 5.19
1082.0, 1.2821, 5.22
1083.0, 1.2779, 5.27
1084.0, 1.2822, 5.22
1085.0, 1.2840, 5.20
1086.0, 1.2842, 5.20
1087.0, 1.2792, 5.26
1088.0, 1.2875, 5.16
1089.0, 1.2819, 5.22
1090.0, 1.2826, 5.22
1091.0, 1.2807, 5.24
1092.0, 1.2776, 5.28
1093.0, 1.2736, 5.33
1094.0, 1.2660, 5.42
1095.0, 1.2612, 5.48
1096.0, 1.2558, 5.55
1097.0, 1.2567, 5.54
1098.0, 1.2564, 5.54
1099.0, 1.2551, 5.56
1100.0, 1.2525, 5.59
